# scan = 456
# date = 5/2/2024
# time = 5:06:06 PM
# proposal = 32124
# experiment = Investigation of Spin Waves and Magnetic Interactions in NiTiO3
# experiment_number = 418
# command = scan h 0 k 0 l 1.7 e 0.1 0.4 0.1 preset mcu 60
# builtin_command = scan h 0 k 0 l 1.7 e 0.1 0.4 0.1 preset mcu 60
# users = Armando Di Biase, John Schneeloch, Despina Louca, Rathnayaka Mudiyanselage Dilan Srimal Rathnayaka
# local_contact = Tao Hong
# scan_title = elastic scans at T=53
# monochromator = PG002
# analyzer = Pg002
# sense = -+-
# collimation = 48-40-40-120
# samplename = Single crystal
# sampletype = crystal
# samplemosaic = 30.000000
# latticeconstants = 5.013468,5.013468,13.803923,90.000000,90.000000,120.000000
# ubmatrix = -0.199159,-0.197149,-0.008262,0.022749,0.022749,-0.071970,0.113426,-0.116885,-0.000072
# mode = 0
# plane_normal = -0.008727,-0.000000,0.999962
# ubconf = UB30Apr2024_100100AM.ini
# preset_type = normal 
# preset_channel = mcu
# preset_value = 60.000000
# def_x = e
# def_y = detector
# col_headers = 
#   Pt.          h          k          l          e       time   detector    monitor        mcu focal_length         m1         m2       marc     mtrans     mfocus         s1         s2        sgl        sgu        bbb        bbl        bbr        bbt        bab        bal        bar        bat        stl        stu         a1         a2     afocus        qm1        qm2        qm3        qm4        qm5        qm6        qm7        qm8        xm1        xm2        xm3        xm4        xm5        xm6        xm7        xm8          q         ei         ef        vti     sample       temp
      1     0.0000     0.0000     1.7000     0.1000     53.186    464.000 132001.000     60.000    97.4378   142.4878   -75.0243     0.4200    -1.0000    28.4560   -67.6725    29.2919     0.5000     0.0000     0.0000     0.0000     0.0000     0.0000    20.0000     5.0000     5.0000    16.0000    -3.0000    -2.0000   142.0306   -75.9388     0.0000     0.0000     0.0000     0.0000     0.0000     0.0000     0.0000     0.0000     0.0000     0.0000     0.0000     0.0000     0.0000     0.0000     0.0000     0.0000     0.0000     0.7738     4.9000     4.8000     1.4707     1.4623     1.000
      2     0.0000     0.0000     1.7000     0.2000     56.379    152.000 132001.000     60.000    96.4474   142.9286   -74.1428     0.4200    -1.0000    28.6600   -66.6400    29.1227     0.5000     0.0000     0.0000     0.0000     0.0000     0.0000    20.0000     5.0000     5.0000    16.0000    -3.0000    -2.0000   142.0306   -75.9388     0.0000     0.0000     0.0000     0.0000     0.0000     0.0000     0.0000     0.0000     0.0000     0.0000     0.0000     0.0000     0.0000     0.0000     0.0000     0.0000     0.0000     0.7738     5.0000     4.8000     1.4707     1.4574     1.000
      3     0.0000     0.0000     1.7000     0.3000     57.722     36.000 132001.000     60.000    95.4958   143.3539   -73.2922     0.4200    -1.0000    28.8600   -65.6175    28.9458     0.5000     0.0000     0.0000     0.0000     0.0000     0.0000    20.0000     5.0000     5.0000    16.0000    -3.0000    -2.0000   142.0306   -75.9388     0.0000     0.0000     0.0000     0.0000     0.0000     0.0000     0.0000     0.0000     0.0000     0.0000     0.0000     0.0000     0.0000     0.0000     0.0000     0.0000     0.0000     0.7738     5.1000     4.8000     1.4705     1.4530     1.000
      4    -0.0000    -0.0000     1.7000     0.4000     56.509     14.000 132001.000     60.000    94.5813   143.7646   -72.4707     0.4200    -1.0000    29.0560   -64.6100    28.7614     0.5000     0.0000     0.0000     0.0000     0.0000     0.0000    20.0000     5.0000     5.0000    16.0000    -3.0000    -2.0000   142.0306   -75.9388     0.0000     0.0000     0.0000     0.0000     0.0000     0.0000     0.0000     0.0000     0.0000     0.0000     0.0000     0.0000     0.0000     0.0000     0.0000     0.0000     0.0000     0.7738     5.2000     4.8000     1.4706     1.4579     1.000
# Sum of Counts = 666
# Center of Mass = 0.139940+/-0.008120
# Full Width Half-Maximum = 0.137712+/-0.010471
# 5:14:42 PM  5/2/2024   scan completed.
