# scan = 83
# date = 4/30/2024
# time = 10:51:05 AM
# proposal = 32124
# experiment = Investigation of Spin Waves and Magnetic Interactions in NiTiO3
# experiment_number = 418
# command = scan h 0 k 0 l 1.6 e 0.5 1.5 0.1 preset mcu 60
# builtin_command = scan h 0 k 0 l 1.6 e 0.5 1.5 0.1 preset mcu 60
# users = Armando Di Biase, John Schneeloch, Despina Louca, Rathnayaka Mudiyanselage Dilan Srimal Rathnayaka
# local_contact = Tao Hong
# scan_title = alignment on cooling
# monochromator = PG002
# analyzer = Pg002
# sense = -+-
# collimation = 48-40-40-120
# samplename = Single crystal
# sampletype = crystal
# samplemosaic = 30.000000
# latticeconstants = 5.013468,5.013468,13.803923,90.000000,90.000000,120.000000
# ubmatrix = -0.199159,-0.197149,-0.008262,0.022749,0.022749,-0.071970,0.113426,-0.116885,-0.000072
# mode = 0
# plane_normal = -0.008727,-0.000000,0.999962
# ubconf = UB30Apr2024_100100AM.ini
# preset_type = normal 
# preset_channel = mcu
# preset_value = 60.000000
# def_x = e
# def_y = detector
# col_headers = 
#   Pt.          h          k          l          e       time   detector    monitor        mcu focal_length         m1         m2       marc     mtrans     mfocus         s1         s2        sgl        sgu        bbb        bbl        bbr        bbt        bab        bal        bar        bat        stl        stu         a1         a2     afocus        qm1        qm2        qm3        qm4        qm5        qm6        qm7        qm8        xm1        xm2        xm3        xm4        xm5        xm6        xm7        xm8          q         ei         ef        vti     sample       temp
      1     0.0000     0.0000     1.6000     0.5000     55.973    292.000 132001.000     60.000    93.6841   144.1616   -71.6767     0.4200    -1.0000    29.2520   -64.1050    26.8390     0.5000     0.0000     0.0000     0.0000     0.0000     0.0000    20.0000     5.0000     5.0000    16.0000    -3.0000    -2.0000   142.0306   -75.9388     0.0000     0.0000     0.0000     0.0000     0.0000     0.0000     0.0000     0.0000     0.0000     0.0000     0.0000     0.0000     0.0000     0.0000     0.0000     0.0000     0.0000     0.7283     5.3000     4.8000     1.4984     1.5043     1.000
      2     0.0000     0.0000     1.6000     0.6000     56.653    383.000 132001.000     60.000    92.8037   144.5457   -70.9087     0.4200    -1.0000    29.4480   -63.0425    26.6454     0.5000     0.0000     0.0000     0.0000     0.0000     0.0000    20.0000     5.0000     5.0000    16.0000    -3.0000    -2.0000   142.0306   -75.9388     0.0000     0.0000     0.0000     0.0000     0.0000     0.0000     0.0000     0.0000     0.0000     0.0000     0.0000     0.0000     0.0000     0.0000     0.0000     0.0000     0.0000     0.7283     5.4000     4.8000     1.4986     1.5173     1.000
      3     0.0000     0.0000     1.6000     0.7000     56.395    344.000 132001.000     60.000    91.9572   144.9174   -70.1652     0.4200    -1.0000    29.6400   -61.9900    26.4443     0.5000     0.0000     0.0000     0.0000     0.0000     0.0000    20.0000     5.0000     5.0000    16.0000    -3.0000    -2.0000   142.0306   -75.9388     0.0000     0.0000     0.0000     0.0000     0.0000     0.0000     0.0000     0.0000     0.0000     0.0000     0.0000     0.0000     0.0000     0.0000     0.0000     0.0000     0.0000     0.7283     5.5000     4.8000     1.4986     1.5076     1.000
      4    -0.0000    -0.0000     1.6000     0.8000     56.197    284.000 132001.000     60.000    91.1432   145.2776   -69.4449     0.4200    -1.0000    29.8280   -60.9500    26.2359     0.5000     0.0000     0.0000     0.0000     0.0000     0.0000    20.0000     5.0000     5.0000    16.0000    -3.0000    -2.0000   142.0306   -75.9388     0.0000     0.0000     0.0000     0.0000     0.0000     0.0000     0.0000     0.0000     0.0000     0.0000     0.0000     0.0000     0.0000     0.0000     0.0000     0.0000     0.0000     0.7283     5.6000     4.8000     1.4985     1.5060     1.000
      5    -0.0000    -0.0000     1.6000     0.9000     54.525    205.000 132001.000     60.000    90.3266   145.6266   -68.7467     0.4200    -1.0000    30.0200   -59.9150    26.0205     0.5000     0.0000     0.0000     0.0000     0.0000     0.0000    20.0000     5.0000     5.0000    16.0000    -3.0000    -2.0000   142.0306   -75.9388     0.0000     0.0000     0.0000     0.0000     0.0000     0.0000     0.0000     0.0000     0.0000     0.0000     0.0000     0.0000     0.0000     0.0000     0.0000     0.0000     0.0000     0.7283     5.7000     4.8000     1.4990     1.5071     1.000
      6     0.0000     0.0000     1.6000     1.0000     53.984    164.000 132001.000     60.000    89.5577   145.9653   -68.0694     0.4200    -1.0000    30.2040   -58.8875    25.7981     0.5000     0.0000     0.0000     0.0000     0.0000     0.0000    20.0000     5.0000     5.0000    16.0000    -3.0000    -2.0000   142.0306   -75.9388     0.0000     0.0000     0.0000     0.0000     0.0000     0.0000     0.0000     0.0000     0.0000     0.0000     0.0000     0.0000     0.0000     0.0000     0.0000     0.0000     0.0000     0.7283     5.8000     4.8000     1.4990     1.4956     1.000
      7     0.0000     0.0000     1.6000     1.1000     53.240    108.000 132001.000     60.000    88.7854   146.2940   -67.4120     0.4200    -1.0000    30.3920   -57.8700    25.5690     0.5000     0.0000     0.0000     0.0000     0.0000     0.0000    20.0000     5.0000     5.0000    16.0000    -3.0000    -2.0000   142.0306   -75.9388     0.0000     0.0000     0.0000     0.0000     0.0000     0.0000     0.0000     0.0000     0.0000     0.0000     0.0000     0.0000     0.0000     0.0000     0.0000     0.0000     0.0000     0.7283     5.9000     4.8000     1.4991     1.5012     1.000
      8    -0.0000    -0.0000     1.6000     1.2000     52.924     63.000 132001.000     60.000    88.0424   146.6133   -66.7735     0.4200    -1.0000    30.5760   -56.8600    25.3333     0.5000     0.0000     0.0000     0.0000     0.0000     0.0000    20.0000     5.0000     5.0000    16.0000    -3.0000    -2.0000   142.0306   -75.9388     0.0000     0.0000     0.0000     0.0000     0.0000     0.0000     0.0000     0.0000     0.0000     0.0000     0.0000     0.0000     0.0000     0.0000     0.0000     0.0000     0.0000     0.7283     6.0000     4.8000     1.4990     1.5066     1.000
      9     0.0000     0.0000     1.6000     1.3000     53.208     42.000 132001.000     60.000    87.3274   146.9235   -66.1530     0.4200    -1.0000    30.7560   -55.8525    25.0910     0.5000     0.0000     0.0000     0.0000     0.0000     0.0000    20.0000     5.0000     5.0000    16.0000    -3.0000    -2.0000   142.0306   -75.9388     0.0000     0.0000     0.0000     0.0000     0.0000     0.0000     0.0000     0.0000     0.0000     0.0000     0.0000     0.0000     0.0000     0.0000     0.0000     0.0000     0.0000     0.7283     6.1000     4.8000     1.4988     1.4910     1.000
     10    -0.0000    -0.0000     1.6000     1.4000     54.548     23.000 132001.000     60.000    86.6085   147.2252   -65.5497     0.4200    -1.0000    30.9400   -54.8525    24.8423     0.5000     0.0000     0.0000     0.0000     0.0000     0.0000    20.0000     5.0000     5.0000    16.0000    -3.0000    -2.0000   142.0306   -75.9388     0.0000     0.0000     0.0000     0.0000     0.0000     0.0000     0.0000     0.0000     0.0000     0.0000     0.0000     0.0000     0.0000     0.0000     0.0000     0.0000     0.0000     0.7283     6.2000     4.8000     1.4987     1.5041     1.000
     11    -0.0000    -0.0000     1.6000     1.5000     55.606     12.000 132001.000     60.000    85.9166   147.5186   -64.9628     0.4200    -1.0000    31.1200   -53.8575    24.5872     0.5000     0.0000     0.0000     0.0000     0.0000     0.0000    20.0000     5.0000     5.0000    16.0000    -3.0000    -2.0000   142.0306   -75.9388     0.0000     0.0000     0.0000     0.0000     0.0000     0.0000     0.0000     0.0000     0.0000     0.0000     0.0000     0.0000     0.0000     0.0000     0.0000     0.0000     0.0000     0.7283     6.3000     4.8000     1.4985     1.4947     1.000
# Sum of Counts = 1920
# Center of Mass = 0.776823+/-0.025592
# Full Width Half-Maximum = 0.449719+/-0.018511
# 11:03:43 AM  4/30/2024   scan completed.
