# scan = 387
# date = 5/2/2024
# time = 5:04:35 AM
# proposal = 32124
# experiment = Investigation of Spin Waves and Magnetic Interactions in NiTiO3
# experiment_number = 418
# command = scan h 0 k 0 l 3.1 2.9 0.02 e 0 preset mcu 5
# builtin_command = scan h 0 k 0 l 3.1 2.9 0.02 e 0 preset mcu 5
# users = Armando Di Biase, John Schneeloch, Despina Louca, Rathnayaka Mudiyanselage Dilan Srimal Rathnayaka
# local_contact = Tao Hong
# scan_title = elastic scans at T=24.75
# monochromator = PG002
# analyzer = Pg002
# sense = -+-
# collimation = 48-40-40-120
# samplename = Single crystal
# sampletype = crystal
# samplemosaic = 30.000000
# latticeconstants = 5.013468,5.013468,13.803923,90.000000,90.000000,120.000000
# ubmatrix = -0.199159,-0.197149,-0.008262,0.022749,0.022749,-0.071970,0.113426,-0.116885,-0.000072
# mode = 0
# plane_normal = -0.008727,-0.000000,0.999962
# ubconf = UB30Apr2024_100100AM.ini
# preset_type = normal 
# preset_channel = mcu
# preset_value = 5.000000
# def_x = l
# def_y = detector
# col_headers = 
#   Pt.          h          k          l          e       time   detector    monitor        mcu focal_length         m1         m2       marc     mtrans     mfocus         s1         s2        sgl        sgu        bbb        bbl        bbr        bbt        bab        bal        bar        bat        stl        stu         a1         a2     afocus        qm1        qm2        qm3        qm4        qm5        qm6        qm7        qm8        xm1        xm2        xm3        xm4        xm5        xm6        xm7        xm8          q         ei         ef        vti     sample       temp
      1    -0.0000    -0.0000     3.1000     0.0000      4.357    652.000  11001.000      5.000    98.4288   142.0306   -75.9387     0.4200    -1.0000    28.2560   -55.8350    55.2328     0.5000     0.0000     0.0000     0.0000     0.0000     0.0000    20.0000     5.0000     5.0000    16.0000    -3.0000    -2.0000   142.0306   -75.9388     0.0000     0.0000     0.0000     0.0000     0.0000     0.0000     0.0000     0.0000     0.0000     0.0000     0.0000     0.0000     0.0000     0.0000     0.0000     0.0000     0.0000     1.4110     4.8000     4.8000    25.0017    24.9420    24.750
      2     0.0000     0.0000     3.0800     0.0000      4.248   8663.000  11001.000      5.000    98.4288   142.0306   -75.9387     0.4200    -1.0000    28.2560   -56.0275    54.8464     0.5000     0.0000     0.0000     0.0000     0.0000     0.0000    20.0000     5.0000     5.0000    16.0000    -3.0000    -2.0000   142.0306   -75.9388     0.0000     0.0000     0.0000     0.0000     0.0000     0.0000     0.0000     0.0000     0.0000     0.0000     0.0000     0.0000     0.0000     0.0000     0.0000     0.0000     0.0000     1.4019     4.8000     4.8000    25.0044    24.9490    24.750
      3     0.0000     0.0000     3.0600     0.0000      4.267 107468.000  11001.000      5.000    98.4288   142.0306   -75.9387     0.4200    -1.0000    28.2560   -56.2200    54.4606     0.5000     0.0000     0.0000     0.0000     0.0000     0.0000    20.0000     5.0000     5.0000    16.0000    -3.0000    -2.0000   142.0306   -75.9388     0.0000     0.0000     0.0000     0.0000     0.0000     0.0000     0.0000     0.0000     0.0000     0.0000     0.0000     0.0000     0.0000     0.0000     0.0000     0.0000     0.0000     1.3928     4.8000     4.8000    25.0053    24.9543    24.750
      4    -0.0000    -0.0000     3.0400     0.0000      4.287 298070.000  11001.000      5.000    98.4288   142.0306   -75.9387     0.4200    -1.0000    28.2560   -56.4150    54.0756     0.5000     0.0000     0.0000     0.0000     0.0000     0.0000    20.0000     5.0000     5.0000    16.0000    -3.0000    -2.0000   142.0306   -75.9388     0.0000     0.0000     0.0000     0.0000     0.0000     0.0000     0.0000     0.0000     0.0000     0.0000     0.0000     0.0000     0.0000     0.0000     0.0000     0.0000     0.0000     1.3837     4.8000     4.8000    25.0055    24.9582    24.750
      5     0.0000     0.0000     3.0200     0.0000      4.301 417426.000  11001.000      5.000    98.4288   142.0306   -75.9387     0.4200    -1.0000    28.2560   -56.6050    53.6911     0.5000     0.0000     0.0000     0.0000     0.0000     0.0000    20.0000     5.0000     5.0000    16.0000    -3.0000    -2.0000   142.0306   -75.9388     0.0000     0.0000     0.0000     0.0000     0.0000     0.0000     0.0000     0.0000     0.0000     0.0000     0.0000     0.0000     0.0000     0.0000     0.0000     0.0000     0.0000     1.3746     4.8000     4.8000    25.0066    24.9612    24.750
      6     0.0000     0.0000     3.0000     0.0000      4.351 492207.000  11001.000      5.000    98.4288   142.0306   -75.9387     0.4200    -1.0000    28.2560   -56.7975    53.3074     0.5000     0.0000     0.0000     0.0000     0.0000     0.0000    20.0000     5.0000     5.0000    16.0000    -3.0000    -2.0000   142.0306   -75.9388     0.0000     0.0000     0.0000     0.0000     0.0000     0.0000     0.0000     0.0000     0.0000     0.0000     0.0000     0.0000     0.0000     0.0000     0.0000     0.0000     0.0000     1.3655     4.8000     4.8000    25.0064    24.9623    24.750
      7     0.0000     0.0000     2.9800     0.0000      4.252 370494.000  11001.000      5.000    98.4288   142.0306   -75.9387     0.4200    -1.0000    28.2560   -56.9875    52.9242     0.5000     0.0000     0.0000     0.0000     0.0000     0.0000    20.0000     5.0000     5.0000    16.0000    -3.0000    -2.0000   142.0306   -75.9388     0.0000     0.0000     0.0000     0.0000     0.0000     0.0000     0.0000     0.0000     0.0000     0.0000     0.0000     0.0000     0.0000     0.0000     0.0000     0.0000     0.0000     1.3564     4.8000     4.8000    25.0076    24.9635    24.750
      8     0.0000     0.0000     2.9600     0.0000      4.347 231294.000  11001.000      5.000    98.4288   142.0306   -75.9387     0.4200    -1.0000    28.2560   -57.1800    52.5417     0.5000     0.0000     0.0000     0.0000     0.0000     0.0000    20.0000     5.0000     5.0000    16.0000    -3.0000    -2.0000   142.0306   -75.9388     0.0000     0.0000     0.0000     0.0000     0.0000     0.0000     0.0000     0.0000     0.0000     0.0000     0.0000     0.0000     0.0000     0.0000     0.0000     0.0000     0.0000     1.3473     4.8000     4.8000    25.0093    24.9654    24.750
      9     0.0000     0.0000     2.9400     0.0000      4.273  21425.000  11001.000      5.000    98.4288   142.0306   -75.9387     0.4200    -1.0000    28.2560   -57.3700    52.1599     0.5000     0.0000     0.0000     0.0000     0.0000     0.0000    20.0000     5.0000     5.0000    16.0000    -3.0000    -2.0000   142.0306   -75.9388     0.0000     0.0000     0.0000     0.0000     0.0000     0.0000     0.0000     0.0000     0.0000     0.0000     0.0000     0.0000     0.0000     0.0000     0.0000     0.0000     0.0000     1.3382     4.8000     4.8000    25.0127    24.9672    24.750
     10     0.0000     0.0000     2.9200     0.0000      4.315   3120.000  11001.000      5.000    98.4288   142.0306   -75.9387     0.4200    -1.0000    28.2560   -57.5600    51.7786     0.5000     0.0000     0.0000     0.0000     0.0000     0.0000    20.0000     5.0000     5.0000    16.0000    -3.0000    -2.0000   142.0306   -75.9388     0.0000     0.0000     0.0000     0.0000     0.0000     0.0000     0.0000     0.0000     0.0000     0.0000     0.0000     0.0000     0.0000     0.0000     0.0000     0.0000     0.0000     1.3291     4.8000     4.8000    25.0158    24.9699    24.750
     11    -0.0000    -0.0000     2.9000     0.0000      4.372   3780.000  11001.000      5.000    98.4288   142.0306   -75.9387     0.4200    -1.0000    28.2560   -57.7525    51.3980     0.5000     0.0000     0.0000     0.0000     0.0000     0.0000    20.0000     5.0000     5.0000    16.0000    -3.0000    -2.0000   142.0306   -75.9388     0.0000     0.0000     0.0000     0.0000     0.0000     0.0000     0.0000     0.0000     0.0000     0.0000     0.0000     0.0000     0.0000     0.0000     0.0000     0.0000     0.0000     1.3200     4.8000     4.8000    25.0205    24.9729    24.750
# Sum of Counts = 1954599
# Center of Mass = 3.004555+/-0.003039
# Full Width Half-Maximum = 0.059075+/-0.002067
# 5:06:59 AM  5/2/2024   scan completed.
