# scan = 108
# date = 4/30/2024
# time = 2:51:48 PM
# proposal = 32124
# experiment = Investigation of Spin Waves and Magnetic Interactions in NiTiO3
# experiment_number = 418
# command = scan h 0 k 0 l 1.5 e 1 2 0.1 preset mcu 60
# builtin_command = scan h 0 k 0 l 1.5 e 1 2 0.1 preset mcu 60
# users = Armando Di Biase, John Schneeloch, Despina Louca, Rathnayaka Mudiyanselage Dilan Srimal Rathnayaka
# local_contact = Tao Hong
# scan_title = magnons, constant-Q, (0,0,L)
# monochromator = PG002
# analyzer = Pg002
# sense = -+-
# collimation = 48-40-40-120
# samplename = Single crystal
# sampletype = crystal
# samplemosaic = 30.000000
# latticeconstants = 5.013468,5.013468,13.803923,90.000000,90.000000,120.000000
# ubmatrix = -0.199159,-0.197149,-0.008262,0.022749,0.022749,-0.071970,0.113426,-0.116885,-0.000072
# mode = 0
# plane_normal = -0.008727,-0.000000,0.999962
# ubconf = UB30Apr2024_100100AM.ini
# preset_type = normal 
# preset_channel = mcu
# preset_value = 60.000000
# def_x = e
# def_y = detector
# col_headers = 
#   Pt.          h          k          l          e       time   detector    monitor        mcu focal_length         m1         m2       marc     mtrans     mfocus         s1         s2        sgl        sgu        bbb        bbl        bbr        bbt        bab        bal        bar        bat        stl        stu         a1         a2     afocus        qm1        qm2        qm3        qm4        qm5        qm6        qm7        qm8        xm1        xm2        xm3        xm4        xm5        xm6        xm7        xm8          q         ei         ef        vti     sample       temp
      1     0.0000     0.0000     1.5000     1.0000     53.547     83.000 132001.000     60.000    89.5577   145.9653   -68.0694     0.4200    -1.0000    30.2040   -58.9125    24.0845     0.5000     0.0000     0.0000     0.0000     0.0000     0.0000    20.0000     5.0000     5.0000    16.0000    -3.0000    -2.0000   142.0306   -75.9388     0.0000     0.0000     0.0000     0.0000     0.0000     0.0000     0.0000     0.0000     0.0000     0.0000     0.0000     0.0000     0.0000     0.0000     0.0000     0.0000     0.0000     0.6828     5.8000     4.8000     1.4982     1.4893     1.000
      2    -0.0000    -0.0000     1.5000     1.1000     52.544     78.000 132001.000     60.000    88.7854   146.2940   -67.4120     0.4200    -1.0000    30.3920   -57.8125    23.8552     0.5000     0.0000     0.0000     0.0000     0.0000     0.0000    20.0000     5.0000     5.0000    16.0000    -3.0000    -2.0000   142.0306   -75.9388     0.0000     0.0000     0.0000     0.0000     0.0000     0.0000     0.0000     0.0000     0.0000     0.0000     0.0000     0.0000     0.0000     0.0000     0.0000     0.0000     0.0000     0.6828     5.9000     4.8000     1.4982     1.4919     1.000
      3    -0.0000    -0.0000     1.5000     1.2000     52.997     34.000 132001.000     60.000    88.0424   146.6133   -66.7735     0.4200    -1.0000    30.5760   -56.7200    23.6184     0.5000     0.0000     0.0000     0.0000     0.0000     0.0000    20.0000     5.0000     5.0000    16.0000    -3.0000    -2.0000   142.0306   -75.9388     0.0000     0.0000     0.0000     0.0000     0.0000     0.0000     0.0000     0.0000     0.0000     0.0000     0.0000     0.0000     0.0000     0.0000     0.0000     0.0000     0.0000     0.6828     6.0000     4.8000     1.4982     1.4898     1.000
      4    -0.0000    -0.0000     1.5000     1.3000     53.147     32.000 132001.000     60.000    87.3274   146.9235   -66.1530     0.4200    -1.0000    30.7560   -55.6300    23.3742     0.5000     0.0000     0.0000     0.0000     0.0000     0.0000    20.0000     5.0000     5.0000    16.0000    -3.0000    -2.0000   142.0306   -75.9388     0.0000     0.0000     0.0000     0.0000     0.0000     0.0000     0.0000     0.0000     0.0000     0.0000     0.0000     0.0000     0.0000     0.0000     0.0000     0.0000     0.0000     0.6828     6.1000     4.8000     1.4982     1.4895     1.000
      5    -0.0000    -0.0000     1.5000     1.4000     54.541     21.000 132001.000     60.000    86.6085   147.2252   -65.5497     0.4200    -1.0000    30.9400   -54.5450    23.1228     0.5000     0.0000     0.0000     0.0000     0.0000     0.0000    20.0000     5.0000     5.0000    16.0000    -3.0000    -2.0000   142.0306   -75.9388     0.0000     0.0000     0.0000     0.0000     0.0000     0.0000     0.0000     0.0000     0.0000     0.0000     0.0000     0.0000     0.0000     0.0000     0.0000     0.0000     0.0000     0.6828     6.2000     4.8000     1.4982     1.4963     1.000
      6     0.0000     0.0000     1.5000     1.5000     55.577     13.000 132001.000     60.000    85.9166   147.5186   -64.9628     0.4200    -1.0000    31.1200   -53.4625    22.8640     0.5000     0.0000     0.0000     0.0000     0.0000     0.0000    20.0000     5.0000     5.0000    16.0000    -3.0000    -2.0000   142.0306   -75.9388     0.0000     0.0000     0.0000     0.0000     0.0000     0.0000     0.0000     0.0000     0.0000     0.0000     0.0000     0.0000     0.0000     0.0000     0.0000     0.0000     0.0000     0.6828     6.3000     4.8000     1.4981     1.4980     1.000
      7    -0.0000    -0.0000     1.5000     1.6000     56.149      6.000 132001.000     60.000    85.2506   147.8042   -64.3915     0.4200    -1.0000    31.2960   -52.3875    22.5980     0.5000     0.0000     0.0000     0.0000     0.0000     0.0000    20.0000     5.0000     5.0000    16.0000    -3.0000    -2.0000   142.0306   -75.9388     0.0000     0.0000     0.0000     0.0000     0.0000     0.0000     0.0000     0.0000     0.0000     0.0000     0.0000     0.0000     0.0000     0.0000     0.0000     0.0000     0.0000     0.6828     6.4000     4.8000     1.4982     1.4919     1.000
      8    -0.0000    -0.0000     1.5000     1.7000     57.007      3.000 132001.000     60.000    84.5949   148.0824   -63.8352     0.4200    -1.0000    31.4720   -51.3125    22.3247     0.5000     0.0000     0.0000     0.0000     0.0000     0.0000    20.0000     5.0000     5.0000    16.0000    -3.0000    -2.0000   142.0306   -75.9388     0.0000     0.0000     0.0000     0.0000     0.0000     0.0000     0.0000     0.0000     0.0000     0.0000     0.0000     0.0000     0.0000     0.0000     0.0000     0.0000     0.0000     0.6828     6.5000     4.8000     1.4981     1.4951     1.000
      9    -0.0000    -0.0000     1.5000     1.8000     56.972      3.000 132001.000     60.000    83.9492   148.3534   -63.2932     0.4200    -1.0000    31.6480   -50.2400    22.0442     0.5000     0.0000     0.0000     0.0000     0.0000     0.0000    20.0000     5.0000     5.0000    16.0000    -3.0000    -2.0000   142.0306   -75.9388     0.0000     0.0000     0.0000     0.0000     0.0000     0.0000     0.0000     0.0000     0.0000     0.0000     0.0000     0.0000     0.0000     0.0000     0.0000     0.0000     0.0000     0.6828     6.6000     4.8000     1.4982     1.4867     1.000
     10     0.0000     0.0000     1.5000     1.9000     57.157      4.000 132001.000     60.000    83.3132   148.6175   -62.7649     0.4200    -1.0000    31.8240   -49.1675    21.7563     0.5000     0.0000     0.0000     0.0000     0.0000     0.0000    20.0000     5.0000     5.0000    16.0000    -3.0000    -2.0000   142.0306   -75.9388     0.0000     0.0000     0.0000     0.0000     0.0000     0.0000     0.0000     0.0000     0.0000     0.0000     0.0000     0.0000     0.0000     0.0000     0.0000     0.0000     0.0000     0.6828     6.7000     4.8000     1.4980     1.4784     1.000
     11    -0.0000    -0.0000     1.5000     2.0000     57.480      1.000 132001.000     60.000    82.7010   148.8751   -62.2498     0.4200    -1.0000    31.9960   -48.1000    21.4612     0.5000     0.0000     0.0000     0.0000     0.0000     0.0000    20.0000     5.0000     5.0000    16.0000    -3.0000    -2.0000   142.0306   -75.9388     0.0000     0.0000     0.0000     0.0000     0.0000     0.0000     0.0000     0.0000     0.0000     0.0000     0.0000     0.0000     0.0000     0.0000     0.0000     0.0000     0.0000     0.6828     6.8000     4.8000     1.4981     1.4906     1.000
# Sum of Counts = 278
# Center of Mass = 1.186331+/-0.101377
# Full Width Half-Maximum = 0.411491+/-0.073506
# 3:05:39 PM  4/30/2024   scan completed.
