# scan = 119
# date = 4/30/2024
# time = 6:10:37 PM
# proposal = 32124
# experiment = Investigation of Spin Waves and Magnetic Interactions in NiTiO3
# experiment_number = 418
# command = scan h 0.5 k 0.5 l 1.5 e 0.1 2 0.1 preset mcu 60
# builtin_command = scan h 0.5 k 0.5 l 1.5 e 0.1 2 0.1 preset mcu 60
# users = Armando Di Biase, John Schneeloch, Despina Louca, Rathnayaka Mudiyanselage Dilan Srimal Rathnayaka
# local_contact = Tao Hong
# scan_title = magnons, constant-Q, (H,H,1.5)
# monochromator = PG002
# analyzer = Pg002
# sense = -+-
# collimation = 48-40-40-120
# samplename = Single crystal
# sampletype = crystal
# samplemosaic = 30.000000
# latticeconstants = 5.013468,5.013468,13.803923,90.000000,90.000000,120.000000
# ubmatrix = -0.199159,-0.197149,-0.008262,0.022749,0.022749,-0.071970,0.113426,-0.116885,-0.000072
# mode = 0
# plane_normal = -0.008727,-0.000000,0.999962
# ubconf = UB30Apr2024_100100AM.ini
# preset_type = normal 
# preset_channel = mcu
# preset_value = 60.000000
# def_x = e
# def_y = detector
# col_headers = 
#   Pt.          h          k          l          e       time   detector    monitor        mcu focal_length         m1         m2       marc     mtrans     mfocus         s1         s2        sgl        sgu        bbb        bbl        bbr        bbt        bab        bal        bar        bat        stl        stu         a1         a2     afocus        qm1        qm2        qm3        qm4        qm5        qm6        qm7        qm8        xm1        xm2        xm3        xm4        xm5        xm6        xm7        xm8          q         ei         ef        vti     sample       temp
      1     0.5000     0.5000     1.5001     0.1000     53.764    437.000 132001.000     60.000    97.4378   142.4878   -75.0243     0.4200    -1.0000    28.4560     6.3275    55.6032     0.5000     0.0000     0.0000     0.0000     0.0000     0.0000    20.0000     5.0000     5.0000    16.0000    -3.0000    -2.0000   142.0306   -75.9388     0.0000     0.0000     0.0000     0.0000     0.0000     0.0000     0.0000     0.0000     0.0000     0.0000     0.0000     0.0000     0.0000     0.0000     0.0000     0.0000     0.0000     1.4272     4.9000     4.8000     1.4970     1.4906     1.000
      2     0.5000     0.5000     1.5000     0.2000     56.754    105.000 132001.000     60.000    96.4474   142.9286   -74.1428     0.4200    -1.0000    28.6600     6.7275    55.2882     0.5000     0.0000     0.0000     0.0000     0.0000     0.0000    20.0000     5.0000     5.0000    16.0000    -3.0000    -2.0000   142.0306   -75.9388     0.0000     0.0000     0.0000     0.0000     0.0000     0.0000     0.0000     0.0000     0.0000     0.0000     0.0000     0.0000     0.0000     0.0000     0.0000     0.0000     0.0000     1.4272     5.0000     4.8000     1.4974     1.4934     1.000
      3     0.5000     0.5000     1.5000     0.3000     58.346     30.000 132001.000     60.000    95.4958   143.3539   -73.2922     0.4200    -1.0000    28.8600     7.1225    54.9742     0.5000     0.0000     0.0000     0.0000     0.0000     0.0000    20.0000     5.0000     5.0000    16.0000    -3.0000    -2.0000   142.0306   -75.9388     0.0000     0.0000     0.0000     0.0000     0.0000     0.0000     0.0000     0.0000     0.0000     0.0000     0.0000     0.0000     0.0000     0.0000     0.0000     0.0000     0.0000     1.4272     5.1000     4.8000     1.4976     1.4904     1.000
      4     0.5000     0.5000     1.5000     0.4000     56.546      5.000 132001.000     60.000    94.5813   143.7646   -72.4707     0.4200    -1.0000    29.0560     7.5150    54.6614     0.5000     0.0000     0.0000     0.0000     0.0000     0.0000    20.0000     5.0000     5.0000    16.0000    -3.0000    -2.0000   142.0306   -75.9388     0.0000     0.0000     0.0000     0.0000     0.0000     0.0000     0.0000     0.0000     0.0000     0.0000     0.0000     0.0000     0.0000     0.0000     0.0000     0.0000     0.0000     1.4272     5.2000     4.8000     1.4976     1.4824     1.000
      5     0.5000     0.5000     1.5000     0.5000     55.531      3.000 132001.000     60.000    93.6841   144.1616   -71.6767     0.4200    -1.0000    29.2520     7.9050    54.3496     0.5000     0.0000     0.0000     0.0000     0.0000     0.0000    20.0000     5.0000     5.0000    16.0000    -3.0000    -2.0000   142.0306   -75.9388     0.0000     0.0000     0.0000     0.0000     0.0000     0.0000     0.0000     0.0000     0.0000     0.0000     0.0000     0.0000     0.0000     0.0000     0.0000     0.0000     0.0000     1.4272     5.3000     4.8000     1.4977     1.4871     1.000
      6     0.5000     0.5000     1.5000     0.6000     56.377      1.000 132001.000     60.000    92.8037   144.5457   -70.9087     0.4200    -1.0000    29.4480     8.2900    54.0388     0.5000     0.0000     0.0000     0.0000     0.0000     0.0000    20.0000     5.0000     5.0000    16.0000    -3.0000    -2.0000   142.0306   -75.9388     0.0000     0.0000     0.0000     0.0000     0.0000     0.0000     0.0000     0.0000     0.0000     0.0000     0.0000     0.0000     0.0000     0.0000     0.0000     0.0000     0.0000     1.4272     5.4000     4.8000     1.4977     1.4886     1.000
      7     0.5000     0.5000     1.5000     0.7000     56.306      2.000 132001.000     60.000    91.9572   144.9174   -70.1652     0.4200    -1.0000    29.6400     8.6750    53.7290     0.5000     0.0000     0.0000     0.0000     0.0000     0.0000    20.0000     5.0000     5.0000    16.0000    -3.0000    -2.0000   142.0306   -75.9388     0.0000     0.0000     0.0000     0.0000     0.0000     0.0000     0.0000     0.0000     0.0000     0.0000     0.0000     0.0000     0.0000     0.0000     0.0000     0.0000     0.0000     1.4272     5.5000     4.8000     1.4977     1.4873     1.000
      8     0.5000     0.5000     1.5000     0.8000     55.977      1.000 132001.000     60.000    91.1432   145.2776   -69.4449     0.4200    -1.0000    29.8280     9.0550    53.4201     0.5000     0.0000     0.0000     0.0000     0.0000     0.0000    20.0000     5.0000     5.0000    16.0000    -3.0000    -2.0000   142.0306   -75.9388     0.0000     0.0000     0.0000     0.0000     0.0000     0.0000     0.0000     0.0000     0.0000     0.0000     0.0000     0.0000     0.0000     0.0000     0.0000     0.0000     0.0000     1.4272     5.6000     4.8000     1.4977     1.4915     1.000
      9     0.5000     0.5000     1.5001     0.9000     54.790      1.000 132001.000     60.000    90.3266   145.6266   -68.7467     0.4200    -1.0000    30.0200     9.4325    53.1121     0.5000     0.0000     0.0000     0.0000     0.0000     0.0000    20.0000     5.0000     5.0000    16.0000    -3.0000    -2.0000   142.0306   -75.9388     0.0000     0.0000     0.0000     0.0000     0.0000     0.0000     0.0000     0.0000     0.0000     0.0000     0.0000     0.0000     0.0000     0.0000     0.0000     0.0000     0.0000     1.4272     5.7000     4.8000     1.4977     1.4825     1.000
     10     0.5000     0.5000     1.5001     1.0000     53.609      1.000 132001.000     60.000    89.5577   145.9653   -68.0694     0.4200    -1.0000    30.2040     9.8075    52.8050     0.5000     0.0000     0.0000     0.0000     0.0000     0.0000    20.0000     5.0000     5.0000    16.0000    -3.0000    -2.0000   142.0306   -75.9388     0.0000     0.0000     0.0000     0.0000     0.0000     0.0000     0.0000     0.0000     0.0000     0.0000     0.0000     0.0000     0.0000     0.0000     0.0000     0.0000     0.0000     1.4272     5.8000     4.8000     1.4975     1.4837     1.000
     11     0.5000     0.5000     1.5001     1.1000     53.265      2.000 132001.000     60.000    88.7854   146.2940   -67.4120     0.4200    -1.0000    30.3920    10.1825    52.4986     0.5000     0.0000     0.0000     0.0000     0.0000     0.0000    20.0000     5.0000     5.0000    16.0000    -3.0000    -2.0000   142.0306   -75.9388     0.0000     0.0000     0.0000     0.0000     0.0000     0.0000     0.0000     0.0000     0.0000     0.0000     0.0000     0.0000     0.0000     0.0000     0.0000     0.0000     0.0000     1.4272     5.9000     4.8000     1.4977     1.4915     1.000
     12     0.5000     0.5000     1.5001     1.2000     52.630      1.000 132001.000     60.000    88.0424   146.6133   -66.7735     0.4200    -1.0000    30.5760    10.5525    52.1930     0.5000     0.0000     0.0000     0.0000     0.0000     0.0000    20.0000     5.0000     5.0000    16.0000    -3.0000    -2.0000   142.0306   -75.9388     0.0000     0.0000     0.0000     0.0000     0.0000     0.0000     0.0000     0.0000     0.0000     0.0000     0.0000     0.0000     0.0000     0.0000     0.0000     0.0000     0.0000     1.4272     6.0000     4.8000     1.4976     1.4936     1.000
     13     0.5000     0.5000     1.5002     1.3000     53.070      2.000 132001.000     60.000    87.3274   146.9235   -66.1530     0.4200    -1.0000    30.7560    10.9200    51.8882     0.5000     0.0000     0.0000     0.0000     0.0000     0.0000    20.0000     5.0000     5.0000    16.0000    -3.0000    -2.0000   142.0306   -75.9388     0.0000     0.0000     0.0000     0.0000     0.0000     0.0000     0.0000     0.0000     0.0000     0.0000     0.0000     0.0000     0.0000     0.0000     0.0000     0.0000     0.0000     1.4272     6.1000     4.8000     1.4976     1.4960     1.000
     14     0.5000     0.5000     1.5003     1.4000     54.335      0.000 132001.000     60.000    86.6085   147.2252   -65.5497     0.4200    -1.0000    30.9400    11.2850    51.5840     0.5000     0.0000     0.0000     0.0000     0.0000     0.0000    20.0000     5.0000     5.0000    16.0000    -3.0000    -2.0000   142.0306   -75.9388     0.0000     0.0000     0.0000     0.0000     0.0000     0.0000     0.0000     0.0000     0.0000     0.0000     0.0000     0.0000     0.0000     0.0000     0.0000     0.0000     0.0000     1.4272     6.2000     4.8000     1.4976     1.4905     1.000
     15     0.5000     0.5000     1.5001     1.5000     55.285      1.000 132001.000     60.000    85.9166   147.5186   -64.9628     0.4200    -1.0000    31.1200    11.6550    51.2806     0.5000     0.0000     0.0000     0.0000     0.0000     0.0000    20.0000     5.0000     5.0000    16.0000    -3.0000    -2.0000   142.0306   -75.9388     0.0000     0.0000     0.0000     0.0000     0.0000     0.0000     0.0000     0.0000     0.0000     0.0000     0.0000     0.0000     0.0000     0.0000     0.0000     0.0000     0.0000     1.4272     6.3000     4.8000     1.4975     1.4803     1.000
     16     0.5000     0.5000     1.5002     1.6000     56.294      1.000 132001.000     60.000    85.2506   147.8042   -64.3915     0.4200    -1.0000    31.2960    12.0175    50.9777     0.5000     0.0000     0.0000     0.0000     0.0000     0.0000    20.0000     5.0000     5.0000    16.0000    -3.0000    -2.0000   142.0306   -75.9388     0.0000     0.0000     0.0000     0.0000     0.0000     0.0000     0.0000     0.0000     0.0000     0.0000     0.0000     0.0000     0.0000     0.0000     0.0000     0.0000     0.0000     1.4272     6.4000     4.8000     1.4976     1.4920     1.000
     17     0.5000     0.5000     1.5001     1.7000     56.825      0.000 132001.000     60.000    84.5949   148.0824   -63.8352     0.4200    -1.0000    31.4720    12.3800    50.6755     0.5000     0.0000     0.0000     0.0000     0.0000     0.0000    20.0000     5.0000     5.0000    16.0000    -3.0000    -2.0000   142.0306   -75.9388     0.0000     0.0000     0.0000     0.0000     0.0000     0.0000     0.0000     0.0000     0.0000     0.0000     0.0000     0.0000     0.0000     0.0000     0.0000     0.0000     0.0000     1.4272     6.5000     4.8000     1.4975     1.4901     1.000
     18     0.5000     0.5000     1.4999     1.8000     56.961      1.000 132001.000     60.000    83.9492   148.3534   -63.2932     0.4200    -1.0000    31.6480    12.7450    50.3738     0.5000     0.0000     0.0000     0.0000     0.0000     0.0000    20.0000     5.0000     5.0000    16.0000    -3.0000    -2.0000   142.0306   -75.9388     0.0000     0.0000     0.0000     0.0000     0.0000     0.0000     0.0000     0.0000     0.0000     0.0000     0.0000     0.0000     0.0000     0.0000     0.0000     0.0000     0.0000     1.4272     6.6000     4.8000     1.4975     1.4839     1.000
     19     0.5000     0.5000     1.5000     1.9000     56.962      0.000 132001.000     60.000    83.3132   148.6175   -62.7649     0.4200    -1.0000    31.8240    13.1025    50.0727     0.5000     0.0000     0.0000     0.0000     0.0000     0.0000    20.0000     5.0000     5.0000    16.0000    -3.0000    -2.0000   142.0306   -75.9388     0.0000     0.0000     0.0000     0.0000     0.0000     0.0000     0.0000     0.0000     0.0000     0.0000     0.0000     0.0000     0.0000     0.0000     0.0000     0.0000     0.0000     1.4272     6.7000     4.8000     1.4975     1.4876     1.000
     20     0.5000     0.5000     1.5004     2.0000     57.494      1.000 132001.000     60.000    82.7010   148.8751   -62.2498     0.4200    -1.0000    31.9960    13.4500    49.7720     0.5000     0.0000     0.0000     0.0000     0.0000     0.0000    20.0000     5.0000     5.0000    16.0000    -3.0000    -2.0000   142.0306   -75.9388     0.0000     0.0000     0.0000     0.0000     0.0000     0.0000     0.0000     0.0000     0.0000     0.0000     0.0000     0.0000     0.0000     0.0000     0.0000     0.0000     0.0000     1.4272     6.8000     4.8000     1.4974     1.4884     1.000
# Sum of Counts = 595
# Center of Mass = 0.159328+/-0.012003
# Full Width Half-Maximum = 0.373903+/-0.053025
# 6:35:14 PM  4/30/2024   scan completed.
