# scan = 98
# date = 4/30/2024
# time = 12:51:50 PM
# proposal = 32124
# experiment = Investigation of Spin Waves and Magnetic Interactions in NiTiO3
# experiment_number = 418
# command = scan h 0 k 0 l 2.2 e 2.5 3.5 0.1 preset mcu 60
# builtin_command = scan h 0 k 0 l 2.2 e 2.5 3.5 0.1 preset mcu 60
# users = Armando Di Biase, John Schneeloch, Despina Louca, Rathnayaka Mudiyanselage Dilan Srimal Rathnayaka
# local_contact = Tao Hong
# scan_title = magnons, constant-Q, (0,0,L)
# monochromator = PG002
# analyzer = Pg002
# sense = -+-
# collimation = 48-40-40-120
# samplename = Single crystal
# sampletype = crystal
# samplemosaic = 30.000000
# latticeconstants = 5.013468,5.013468,13.803923,90.000000,90.000000,120.000000
# ubmatrix = -0.199159,-0.197149,-0.008262,0.022749,0.022749,-0.071970,0.113426,-0.116885,-0.000072
# mode = 0
# plane_normal = -0.008727,-0.000000,0.999962
# ubconf = UB30Apr2024_100100AM.ini
# preset_type = normal 
# preset_channel = mcu
# preset_value = 60.000000
# def_x = e
# def_y = detector
# col_headers = 
#   Pt.          h          k          l          e       time   detector    monitor        mcu focal_length         m1         m2       marc     mtrans     mfocus         s1         s2        sgl        sgu        bbb        bbl        bbr        bbt        bab        bal        bar        bat        stl        stu         a1         a2     afocus        qm1        qm2        qm3        qm4        qm5        qm6        qm7        qm8        xm1        xm2        xm3        xm4        xm5        xm6        xm7        xm8          q         ei         ef        vti     sample       temp
      1     0.0000     0.0000     2.2000     2.5000     61.460     80.000 132001.000     60.000    79.8227   150.0735   -59.8530     0.4200    -1.0000    32.8400   -47.4550    32.1625     0.5000     0.0000     0.0000     0.0000     0.0000     0.0000    20.0000     5.0000     5.0000    16.0000    -3.0000    -2.0000   142.0306   -75.9388     0.0000     0.0000     0.0000     0.0000     0.0000     0.0000     0.0000     0.0000     0.0000     0.0000     0.0000     0.0000     0.0000     0.0000     0.0000     0.0000     0.0000     1.0014     7.3000     4.8000     1.4981     1.4924     1.000
      2     0.0000     0.0000     2.2000     2.6000     61.723     26.000 132001.000     60.000    79.2865   150.2968   -59.4063     0.4200    -1.0000    33.0040   -46.8325    31.8761     0.5000     0.0000     0.0000     0.0000     0.0000     0.0000    20.0000     5.0000     5.0000    16.0000    -3.0000    -2.0000   142.0306   -75.9388     0.0000     0.0000     0.0000     0.0000     0.0000     0.0000     0.0000     0.0000     0.0000     0.0000     0.0000     0.0000     0.0000     0.0000     0.0000     0.0000     0.0000     1.0014     7.4000     4.8000     1.4981     1.4885     1.000
      3     0.0000     0.0000     2.2000     2.7000     62.419      9.000 132001.000     60.000    78.7446   150.5152   -58.9695     0.4200    -1.0000    33.1720   -46.2100    31.5871     0.5000     0.0000     0.0000     0.0000     0.0000     0.0000    20.0000     5.0000     5.0000    16.0000    -3.0000    -2.0000   142.0306   -75.9388     0.0000     0.0000     0.0000     0.0000     0.0000     0.0000     0.0000     0.0000     0.0000     0.0000     0.0000     0.0000     0.0000     0.0000     0.0000     0.0000     0.0000     1.0014     7.5000     4.8000     1.4981     1.4933     1.000
      4    -0.0000    -0.0000     2.2000     2.8000     62.117     11.000 132001.000     60.000    78.2354   150.7288   -58.5423     0.4200    -1.0000    33.3320   -45.5925    31.2954     0.5000     0.0000     0.0000     0.0000     0.0000     0.0000    20.0000     5.0000     5.0000    16.0000    -3.0000    -2.0000   142.0306   -75.9388     0.0000     0.0000     0.0000     0.0000     0.0000     0.0000     0.0000     0.0000     0.0000     0.0000     0.0000     0.0000     0.0000     0.0000     0.0000     0.0000     0.0000     1.0014     7.6000     4.8000     1.4982     1.4882     1.000
      5     0.0000     0.0000     2.2000     2.9000     62.551      3.000 132001.000     60.000    77.7202   150.9378   -58.1243     0.4200    -1.0000    33.4960   -44.9700    31.0010     0.5000     0.0000     0.0000     0.0000     0.0000     0.0000    20.0000     5.0000     5.0000    16.0000    -3.0000    -2.0000   142.0306   -75.9388     0.0000     0.0000     0.0000     0.0000     0.0000     0.0000     0.0000     0.0000     0.0000     0.0000     0.0000     0.0000     0.0000     0.0000     0.0000     0.0000     0.0000     1.0014     7.7000     4.8000     1.4981     1.4894     1.000
      6    -0.0000    -0.0000     2.2000     3.0000     62.854      4.000 132001.000     60.000    77.2241   151.1424   -57.7152     0.4200    -1.0000    33.6560   -44.3525    30.7039     0.5000     0.0000     0.0000     0.0000     0.0000     0.0000    20.0000     5.0000     5.0000    16.0000    -3.0000    -2.0000   142.0306   -75.9388     0.0000     0.0000     0.0000     0.0000     0.0000     0.0000     0.0000     0.0000     0.0000     0.0000     0.0000     0.0000     0.0000     0.0000     0.0000     0.0000     0.0000     1.0014     7.8000     4.8000     1.4981     1.4912     1.000
      7     0.0000     0.0000     2.2000     3.1000     62.434      4.000 132001.000     60.000    76.7343   151.3427   -57.3146     0.4200    -1.0000    33.8160   -43.7325    30.4040     0.5000     0.0000     0.0000     0.0000     0.0000     0.0000    20.0000     5.0000     5.0000    16.0000    -3.0000    -2.0000   142.0306   -75.9388     0.0000     0.0000     0.0000     0.0000     0.0000     0.0000     0.0000     0.0000     0.0000     0.0000     0.0000     0.0000     0.0000     0.0000     0.0000     0.0000     0.0000     1.0014     7.9000     4.8000     1.4980     1.4948     1.000
      8    -0.0000    -0.0000     2.2000     3.2000     63.019      0.000 132001.000     60.000    76.2507   151.5388   -56.9223     0.4200    -1.0000    33.9760   -43.1175    30.1014     0.5000     0.0000     0.0000     0.0000     0.0000     0.0000    20.0000     5.0000     5.0000    16.0000    -3.0000    -2.0000   142.0306   -75.9388     0.0000     0.0000     0.0000     0.0000     0.0000     0.0000     0.0000     0.0000     0.0000     0.0000     0.0000     0.0000     0.0000     0.0000     0.0000     0.0000     0.0000     1.0014     8.0000     4.8000     1.4981     1.4977     1.000
      9    -0.0000    -0.0000     2.2000     3.3000     63.263      4.000 132001.000     60.000    75.7731   151.7310   -56.5380     0.4200    -1.0000    34.1360   -42.5000    29.7959     0.5000     0.0000     0.0000     0.0000     0.0000     0.0000    20.0000     5.0000     5.0000    16.0000    -3.0000    -2.0000   142.0306   -75.9388     0.0000     0.0000     0.0000     0.0000     0.0000     0.0000     0.0000     0.0000     0.0000     0.0000     0.0000     0.0000     0.0000     0.0000     0.0000     0.0000     0.0000     1.0014     8.1000     4.8000     1.4981     1.4876     1.000
     10    -0.0000    -0.0000     2.2000     3.4000     63.490     12.000 132001.000     60.000    75.3132   151.9192   -56.1615     0.4200    -1.0000    34.2920   -41.8825    29.4875     0.5000     0.0000     0.0000     0.0000     0.0000     0.0000    20.0000     5.0000     5.0000    16.0000    -3.0000    -2.0000   142.0306   -75.9388     0.0000     0.0000     0.0000     0.0000     0.0000     0.0000     0.0000     0.0000     0.0000     0.0000     0.0000     0.0000     0.0000     0.0000     0.0000     0.0000     0.0000     1.0014     8.2000     4.8000     1.4981     1.4882     1.000
     11     0.0000     0.0000     2.2000     3.5000     63.422     13.000 132001.000     60.000    74.8588   152.1038   -55.7924     0.4200    -1.0000    34.4480   -41.2625    29.1762     0.5000     0.0000     0.0000     0.0000     0.0000     0.0000    20.0000     5.0000     5.0000    16.0000    -3.0000    -2.0000   142.0306   -75.9388     0.0000     0.0000     0.0000     0.0000     0.0000     0.0000     0.0000     0.0000     0.0000     0.0000     0.0000     0.0000     0.0000     0.0000     0.0000     0.0000     0.0000     1.0014     8.3000     4.8000     1.4982     1.4871     1.000
# Sum of Counts = 166
# Center of Mass = 2.742771+/-0.302263
# Full Width Half-Maximum = 0.694667+/-0.253687
# 1:04:48 PM  4/30/2024   scan completed.
