# scan = 249
# date = 5/1/2024
# time = 9:10:08 PM
# proposal = 32124
# experiment = Investigation of Spin Waves and Magnetic Interactions in NiTiO3
# experiment_number = 418
# command = scan h 0 k 0 l 1.6 1.4 0.02 e 0 preset mcu 5
# builtin_command = scan h 0 k 0 l 1.6 1.4 0.02 e 0 preset mcu 5
# users = Armando Di Biase, John Schneeloch, Despina Louca, Rathnayaka Mudiyanselage Dilan Srimal Rathnayaka
# local_contact = Tao Hong
# scan_title = elastic scans at T=13.5
# monochromator = PG002
# analyzer = Pg002
# sense = -+-
# collimation = 48-40-40-120
# samplename = Single crystal
# sampletype = crystal
# samplemosaic = 30.000000
# latticeconstants = 5.013468,5.013468,13.803923,90.000000,90.000000,120.000000
# ubmatrix = -0.199159,-0.197149,-0.008262,0.022749,0.022749,-0.071970,0.113426,-0.116885,-0.000072
# mode = 0
# plane_normal = -0.008727,-0.000000,0.999962
# ubconf = UB30Apr2024_100100AM.ini
# preset_type = normal 
# preset_channel = mcu
# preset_value = 5.000000
# def_x = l
# def_y = detector
# col_headers = 
#   Pt.          h          k          l          e       time   detector    monitor        mcu focal_length         m1         m2       marc     mtrans     mfocus         s1         s2        sgl        sgu        bbb        bbl        bbr        bbt        bab        bal        bar        bat        stl        stu         a1         a2     afocus        qm1        qm2        qm3        qm4        qm5        qm6        qm7        qm8        xm1        xm2        xm3        xm4        xm5        xm6        xm7        xm8          q         ei         ef        vti     sample       temp
      1    -0.0000    -0.0000     1.6000     0.0000      4.293    171.000  11001.000      5.000    98.4288   142.0306   -75.9387     0.4200    -1.0000    28.2560   -69.6100    27.6847     0.5000     0.0000     0.0000     0.0000     0.0000     0.0000    20.0000     5.0000     5.0000    16.0000    -3.0000    -2.0000   142.0306   -75.9388     0.0000     0.0000     0.0000     0.0000     0.0000     0.0000     0.0000     0.0000     0.0000     0.0000     0.0000     0.0000     0.0000     0.0000     0.0000     0.0000     0.0000     0.7283     4.8000     4.8000    13.5061    13.4686    13.500
      2     0.0000     0.0000     1.5800     0.0000      4.266   7708.000  11001.000      5.000    98.4288   142.0306   -75.9387     0.4200    -1.0000    28.2560   -69.7825    27.3319     0.5000     0.0000     0.0000     0.0000     0.0000     0.0000    20.0000     5.0000     5.0000    16.0000    -3.0000    -2.0000   142.0306   -75.9388     0.0000     0.0000     0.0000     0.0000     0.0000     0.0000     0.0000     0.0000     0.0000     0.0000     0.0000     0.0000     0.0000     0.0000     0.0000     0.0000     0.0000     0.7192     4.8000     4.8000    13.5063    13.4677    13.500
      3     0.0000     0.0000     1.5600     0.0000      4.306  48987.000  11001.000      5.000    98.4288   142.0306   -75.9387     0.4200    -1.0000    28.2560   -69.9600    26.9794     0.5000     0.0000     0.0000     0.0000     0.0000     0.0000    20.0000     5.0000     5.0000    16.0000    -3.0000    -2.0000   142.0306   -75.9388     0.0000     0.0000     0.0000     0.0000     0.0000     0.0000     0.0000     0.0000     0.0000     0.0000     0.0000     0.0000     0.0000     0.0000     0.0000     0.0000     0.0000     0.7101     4.8000     4.8000    13.5188    13.4750    13.500
      4     0.0000     0.0000     1.5400     0.0000      4.353 210404.000  11001.000      5.000    98.4288   142.0306   -75.9387     0.4200    -1.0000    28.2560   -70.1375    26.6271     0.5000     0.0000     0.0000     0.0000     0.0000     0.0000    20.0000     5.0000     5.0000    16.0000    -3.0000    -2.0000   142.0306   -75.9388     0.0000     0.0000     0.0000     0.0000     0.0000     0.0000     0.0000     0.0000     0.0000     0.0000     0.0000     0.0000     0.0000     0.0000     0.0000     0.0000     0.0000     0.7010     4.8000     4.8000    13.5298    13.4882    13.500
      5    -0.0000    -0.0000     1.5200     0.0000      4.268 250527.000  11001.000      5.000    98.4288   142.0306   -75.9387     0.4200    -1.0000    28.2560   -70.3150    26.2750     0.5000     0.0000     0.0000     0.0000     0.0000     0.0000    20.0000     5.0000     5.0000    16.0000    -3.0000    -2.0000   142.0306   -75.9388     0.0000     0.0000     0.0000     0.0000     0.0000     0.0000     0.0000     0.0000     0.0000     0.0000     0.0000     0.0000     0.0000     0.0000     0.0000     0.0000     0.0000     0.6919     4.8000     4.8000    13.5355    13.4947    13.500
      6     0.0000     0.0000     1.5000     0.0000      4.291 326199.000  11001.000      5.000    98.4288   142.0306   -75.9387     0.4200    -1.0000    28.2560   -70.4875    25.9232     0.5000     0.0000     0.0000     0.0000     0.0000     0.0000    20.0000     5.0000     5.0000    16.0000    -3.0000    -2.0000   142.0306   -75.9388     0.0000     0.0000     0.0000     0.0000     0.0000     0.0000     0.0000     0.0000     0.0000     0.0000     0.0000     0.0000     0.0000     0.0000     0.0000     0.0000     0.0000     0.6828     4.8000     4.8000    13.5374    13.4998    13.500
      7    -0.0000    -0.0000     1.4800     0.0000      4.290 279564.000  11001.000      5.000    98.4288   142.0306   -75.9387     0.4200    -1.0000    28.2560   -70.6675    25.5717     0.5000     0.0000     0.0000     0.0000     0.0000     0.0000    20.0000     5.0000     5.0000    16.0000    -3.0000    -2.0000   142.0306   -75.9388     0.0000     0.0000     0.0000     0.0000     0.0000     0.0000     0.0000     0.0000     0.0000     0.0000     0.0000     0.0000     0.0000     0.0000     0.0000     0.0000     0.0000     0.6737     4.8000     4.8000    13.5355    13.4993    13.500
      8     0.0000     0.0000     1.4600     0.0000      4.245 177220.000  11001.000      5.000    98.4288   142.0306   -75.9387     0.4200    -1.0000    28.2560   -70.8375    25.2204     0.5000     0.0000     0.0000     0.0000     0.0000     0.0000    20.0000     5.0000     5.0000    16.0000    -3.0000    -2.0000   142.0306   -75.9388     0.0000     0.0000     0.0000     0.0000     0.0000     0.0000     0.0000     0.0000     0.0000     0.0000     0.0000     0.0000     0.0000     0.0000     0.0000     0.0000     0.0000     0.6646     4.8000     4.8000    13.5322    13.4969    13.500
      9     0.0000     0.0000     1.4400     0.0000      4.235  90345.000  11001.000      5.000    98.4288   142.0306   -75.9387     0.4200    -1.0000    28.2560   -71.0150    24.8694     0.5000     0.0000     0.0000     0.0000     0.0000     0.0000    20.0000     5.0000     5.0000    16.0000    -3.0000    -2.0000   142.0306   -75.9388     0.0000     0.0000     0.0000     0.0000     0.0000     0.0000     0.0000     0.0000     0.0000     0.0000     0.0000     0.0000     0.0000     0.0000     0.0000     0.0000     0.0000     0.6555     4.8000     4.8000    13.5305    13.4938    13.500
     10    -0.0000    -0.0000     1.4200     0.0000      4.273   5063.000  11001.000      5.000    98.4288   142.0306   -75.9387     0.4200    -1.0000    28.2560   -71.1925    24.5185     0.5000     0.0000     0.0000     0.0000     0.0000     0.0000    20.0000     5.0000     5.0000    16.0000    -3.0000    -2.0000   142.0306   -75.9388     0.0000     0.0000     0.0000     0.0000     0.0000     0.0000     0.0000     0.0000     0.0000     0.0000     0.0000     0.0000     0.0000     0.0000     0.0000     0.0000     0.0000     0.6463     4.8000     4.8000    13.5326    13.4946    13.500
     11    -0.0000    -0.0000     1.4000     0.0000      4.316    333.000  11001.000      5.000    98.4288   142.0306   -75.9387     0.4200    -1.0000    28.2560   -71.3675    24.1680     0.5000     0.0000     0.0000     0.0000     0.0000     0.0000    20.0000     5.0000     5.0000    16.0000    -3.0000    -2.0000   142.0306   -75.9388     0.0000     0.0000     0.0000     0.0000     0.0000     0.0000     0.0000     0.0000     0.0000     0.0000     0.0000     0.0000     0.0000     0.0000     0.0000     0.0000     0.0000     0.6372     4.8000     4.8000    13.5270    13.4933    13.500
# Sum of Counts = 1396521
# Center of Mass = 1.498898+/-0.001794
# Full Width Half-Maximum = 0.063750+/-0.001186
# 9:12:38 PM  5/1/2024   scan completed.
