# scan = 97
# date = 4/30/2024
# time = 12:39:03 PM
# proposal = 32124
# experiment = Investigation of Spin Waves and Magnetic Interactions in NiTiO3
# experiment_number = 418
# command = scan h 0 k 0 l 2 e 1.5 2.5 0.1 preset mcu 60
# builtin_command = scan h 0 k 0 l 2 e 1.5 2.5 0.1 preset mcu 60
# users = Armando Di Biase, John Schneeloch, Despina Louca, Rathnayaka Mudiyanselage Dilan Srimal Rathnayaka
# local_contact = Tao Hong
# scan_title = magnons, constant-Q, (0,0,L)
# monochromator = PG002
# analyzer = Pg002
# sense = -+-
# collimation = 48-40-40-120
# samplename = Single crystal
# sampletype = crystal
# samplemosaic = 30.000000
# latticeconstants = 5.013468,5.013468,13.803923,90.000000,90.000000,120.000000
# ubmatrix = -0.199159,-0.197149,-0.008262,0.022749,0.022749,-0.071970,0.113426,-0.116885,-0.000072
# mode = 0
# plane_normal = -0.008727,-0.000000,0.999962
# ubconf = UB30Apr2024_100100AM.ini
# preset_type = normal 
# preset_channel = mcu
# preset_value = 60.000000
# def_x = e
# def_y = detector
# col_headers = 
#   Pt.          h          k          l          e       time   detector    monitor        mcu focal_length         m1         m2       marc     mtrans     mfocus         s1         s2        sgl        sgu        bbb        bbl        bbr        bbt        bab        bal        bar        bat        stl        stu         a1         a2     afocus        qm1        qm2        qm3        qm4        qm5        qm6        qm7        qm8        xm1        xm2        xm3        xm4        xm5        xm6        xm7        xm8          q         ei         ef        vti     sample       temp
      1     0.0000     0.0000     2.0000     1.5000     55.513      2.000 132001.000     60.000    85.9166   147.5186   -64.9628     0.4200    -1.0000    31.1200   -54.1700    31.4474     0.5000     0.0000     0.0000     0.0000     0.0000     0.0000    20.0000     5.0000     5.0000    16.0000    -3.0000    -2.0000   142.0306   -75.9388     0.0000     0.0000     0.0000     0.0000     0.0000     0.0000     0.0000     0.0000     0.0000     0.0000     0.0000     0.0000     0.0000     0.0000     0.0000     0.0000     0.0000     0.9103     6.3000     4.8000     1.4983     1.4862     1.000
      2     0.0000     0.0000     2.0000     1.6000     56.276      1.000 132001.000     60.000    85.2506   147.8042   -64.3915     0.4200    -1.0000    31.2960   -53.4300    31.1906     0.5000     0.0000     0.0000     0.0000     0.0000     0.0000    20.0000     5.0000     5.0000    16.0000    -3.0000    -2.0000   142.0306   -75.9388     0.0000     0.0000     0.0000     0.0000     0.0000     0.0000     0.0000     0.0000     0.0000     0.0000     0.0000     0.0000     0.0000     0.0000     0.0000     0.0000     0.0000     0.9103     6.4000     4.8000     1.4982     1.4943     1.000
      3     0.0000     0.0000     2.0000     1.7000     56.888      6.000 132001.000     60.000    84.5949   148.0824   -63.8352     0.4200    -1.0000    31.4720   -52.6925    30.9301     0.5000     0.0000     0.0000     0.0000     0.0000     0.0000    20.0000     5.0000     5.0000    16.0000    -3.0000    -2.0000   142.0306   -75.9388     0.0000     0.0000     0.0000     0.0000     0.0000     0.0000     0.0000     0.0000     0.0000     0.0000     0.0000     0.0000     0.0000     0.0000     0.0000     0.0000     0.0000     0.9103     6.5000     4.8000     1.4983     1.4856     1.000
      4    -0.0000    -0.0000     2.0000     1.8000     56.855     24.000 132001.000     60.000    83.9492   148.3534   -63.2932     0.4200    -1.0000    31.6480   -51.9600    30.6660     0.5000     0.0000     0.0000     0.0000     0.0000     0.0000    20.0000     5.0000     5.0000    16.0000    -3.0000    -2.0000   142.0306   -75.9388     0.0000     0.0000     0.0000     0.0000     0.0000     0.0000     0.0000     0.0000     0.0000     0.0000     0.0000     0.0000     0.0000     0.0000     0.0000     0.0000     0.0000     0.9103     6.6000     4.8000     1.4982     1.4922     1.000
      5    -0.0000    -0.0000     2.0000     1.9000     57.346     64.000 132001.000     60.000    83.3132   148.6175   -62.7649     0.4200    -1.0000    31.8240   -51.2300    30.3983     0.5000     0.0000     0.0000     0.0000     0.0000     0.0000    20.0000     5.0000     5.0000    16.0000    -3.0000    -2.0000   142.0306   -75.9388     0.0000     0.0000     0.0000     0.0000     0.0000     0.0000     0.0000     0.0000     0.0000     0.0000     0.0000     0.0000     0.0000     0.0000     0.0000     0.0000     0.0000     0.9103     6.7000     4.8000     1.4982     1.4931     1.000
      6     0.0000     0.0000     2.0000     2.0000     57.714    141.000 132001.000     60.000    82.7010   148.8751   -62.2498     0.4200    -1.0000    31.9960   -50.5000    30.1270     0.5000     0.0000     0.0000     0.0000     0.0000     0.0000    20.0000     5.0000     5.0000    16.0000    -3.0000    -2.0000   142.0306   -75.9388     0.0000     0.0000     0.0000     0.0000     0.0000     0.0000     0.0000     0.0000     0.0000     0.0000     0.0000     0.0000     0.0000     0.0000     0.0000     0.0000     0.0000     0.9103     6.8000     4.8000     1.4983     1.4851     1.000
      7    -0.0000    -0.0000     2.0000     2.1000     58.477    180.000 132001.000     60.000    82.0977   149.1264   -61.7472     0.4200    -1.0000    32.1680   -49.7775    29.8522     0.5000     0.0000     0.0000     0.0000     0.0000     0.0000    20.0000     5.0000     5.0000    16.0000    -3.0000    -2.0000   142.0306   -75.9388     0.0000     0.0000     0.0000     0.0000     0.0000     0.0000     0.0000     0.0000     0.0000     0.0000     0.0000     0.0000     0.0000     0.0000     0.0000     0.0000     0.0000     0.9103     6.9000     4.8000     1.4982     1.4818     1.000
      8    -0.0000    -0.0000     2.0000     2.2000     59.191     97.000 132001.000     60.000    81.5169   149.3716   -61.2567     0.4200    -1.0000    32.3360   -49.0550    29.5738     0.5000     0.0000     0.0000     0.0000     0.0000     0.0000    20.0000     5.0000     5.0000    16.0000    -3.0000    -2.0000   142.0306   -75.9388     0.0000     0.0000     0.0000     0.0000     0.0000     0.0000     0.0000     0.0000     0.0000     0.0000     0.0000     0.0000     0.0000     0.0000     0.0000     0.0000     0.0000     0.9103     7.0000     4.8000     1.4982     1.5032     1.000
      9    -0.0000    -0.0000     2.0000     2.3000     59.950     52.000 132001.000     60.000    80.9442   149.6111   -60.7778     0.4200    -1.0000    32.5040   -48.3350    29.2918     0.5000     0.0000     0.0000     0.0000     0.0000     0.0000    20.0000     5.0000     5.0000    16.0000    -3.0000    -2.0000   142.0306   -75.9388     0.0000     0.0000     0.0000     0.0000     0.0000     0.0000     0.0000     0.0000     0.0000     0.0000     0.0000     0.0000     0.0000     0.0000     0.0000     0.0000     0.0000     0.9103     7.1000     4.8000     1.4982     1.4895     1.000
     10     0.0000     0.0000     2.0000     2.4000     60.646     23.000 132001.000     60.000    80.3795   149.8450   -60.3101     0.4200    -1.0000    32.6720   -47.6150    29.0063     0.5000     0.0000     0.0000     0.0000     0.0000     0.0000    20.0000     5.0000     5.0000    16.0000    -3.0000    -2.0000   142.0306   -75.9388     0.0000     0.0000     0.0000     0.0000     0.0000     0.0000     0.0000     0.0000     0.0000     0.0000     0.0000     0.0000     0.0000     0.0000     0.0000     0.0000     0.0000     0.9103     7.2000     4.8000     1.4982     1.4894     1.000
     11    -0.0000    -0.0000     2.0000     2.5000     61.253     12.000 132001.000     60.000    79.8227   150.0735   -59.8530     0.4200    -1.0000    32.8400   -46.9000    28.7171     0.5000     0.0000     0.0000     0.0000     0.0000     0.0000    20.0000     5.0000     5.0000    16.0000    -3.0000    -2.0000   142.0306   -75.9388     0.0000     0.0000     0.0000     0.0000     0.0000     0.0000     0.0000     0.0000     0.0000     0.0000     0.0000     0.0000     0.0000     0.0000     0.0000     0.0000     0.0000     0.9103     7.3000     4.8000     1.4982     1.4866     1.000
# Sum of Counts = 602
# Center of Mass = 2.089369+/-0.120601
# Full Width Half-Maximum = 0.316038+/-0.067327
# 12:51:50 PM  4/30/2024   scan completed.
