# scan = 319
# date = 5/2/2024
# time = 1:09:01 AM
# proposal = 32124
# experiment = Investigation of Spin Waves and Magnetic Interactions in NiTiO3
# experiment_number = 418
# command = scan h 0 k 0 l 1.6 1.4 0.02 e 0 preset mcu 5
# builtin_command = scan h 0 k 0 l 1.6 1.4 0.02 e 0 preset mcu 5
# users = Armando Di Biase, John Schneeloch, Despina Louca, Rathnayaka Mudiyanselage Dilan Srimal Rathnayaka
# local_contact = Tao Hong
# scan_title = elastic scans at T=19.25
# monochromator = PG002
# analyzer = Pg002
# sense = -+-
# collimation = 48-40-40-120
# samplename = Single crystal
# sampletype = crystal
# samplemosaic = 30.000000
# latticeconstants = 5.013468,5.013468,13.803923,90.000000,90.000000,120.000000
# ubmatrix = -0.199159,-0.197149,-0.008262,0.022749,0.022749,-0.071970,0.113426,-0.116885,-0.000072
# mode = 0
# plane_normal = -0.008727,-0.000000,0.999962
# ubconf = UB30Apr2024_100100AM.ini
# preset_type = normal 
# preset_channel = mcu
# preset_value = 5.000000
# def_x = l
# def_y = detector
# col_headers = 
#   Pt.          h          k          l          e       time   detector    monitor        mcu focal_length         m1         m2       marc     mtrans     mfocus         s1         s2        sgl        sgu        bbb        bbl        bbr        bbt        bab        bal        bar        bat        stl        stu         a1         a2     afocus        qm1        qm2        qm3        qm4        qm5        qm6        qm7        qm8        xm1        xm2        xm3        xm4        xm5        xm6        xm7        xm8          q         ei         ef        vti     sample       temp
      1    -0.0000    -0.0000     1.6000     0.0000      4.310    161.000  11001.000      5.000    98.4288   142.0306   -75.9387     0.4200    -1.0000    28.2560   -69.6100    27.6847     0.5000     0.0000     0.0000     0.0000     0.0000     0.0000    20.0000     5.0000     5.0000    16.0000    -3.0000    -2.0000   142.0306   -75.9388     0.0000     0.0000     0.0000     0.0000     0.0000     0.0000     0.0000     0.0000     0.0000     0.0000     0.0000     0.0000     0.0000     0.0000     0.0000     0.0000     0.0000     0.7283     4.8000     4.8000    19.2660    19.2214    19.250
      2     0.0000     0.0000     1.5800     0.0000      4.279   4594.000  11001.000      5.000    98.4288   142.0306   -75.9387     0.4200    -1.0000    28.2560   -69.7850    27.3319     0.5000     0.0000     0.0000     0.0000     0.0000     0.0000    20.0000     5.0000     5.0000    16.0000    -3.0000    -2.0000   142.0306   -75.9388     0.0000     0.0000     0.0000     0.0000     0.0000     0.0000     0.0000     0.0000     0.0000     0.0000     0.0000     0.0000     0.0000     0.0000     0.0000     0.0000     0.0000     0.7192     4.8000     4.8000    19.2644    19.2184    19.250
      3     0.0000     0.0000     1.5600     0.0000      4.241  29019.000  11001.000      5.000    98.4288   142.0306   -75.9387     0.4200    -1.0000    28.2560   -69.9575    26.9794     0.5000     0.0000     0.0000     0.0000     0.0000     0.0000    20.0000     5.0000     5.0000    16.0000    -3.0000    -2.0000   142.0306   -75.9388     0.0000     0.0000     0.0000     0.0000     0.0000     0.0000     0.0000     0.0000     0.0000     0.0000     0.0000     0.0000     0.0000     0.0000     0.0000     0.0000     0.0000     0.7101     4.8000     4.8000    19.2613    19.2165    19.250
      4     0.0000     0.0000     1.5400     0.0000      4.287 132696.000  11001.000      5.000    98.4288   142.0306   -75.9387     0.4200    -1.0000    28.2560   -70.1350    26.6271     0.5000     0.0000     0.0000     0.0000     0.0000     0.0000    20.0000     5.0000     5.0000    16.0000    -3.0000    -2.0000   142.0306   -75.9388     0.0000     0.0000     0.0000     0.0000     0.0000     0.0000     0.0000     0.0000     0.0000     0.0000     0.0000     0.0000     0.0000     0.0000     0.0000     0.0000     0.0000     0.7010     4.8000     4.8000    19.2542    19.2126    19.250
      5     0.0000     0.0000     1.5200     0.0000      4.301 172031.000  11001.000      5.000    98.4288   142.0306   -75.9387     0.4200    -1.0000    28.2560   -70.3125    26.2750     0.5000     0.0000     0.0000     0.0000     0.0000     0.0000    20.0000     5.0000     5.0000    16.0000    -3.0000    -2.0000   142.0306   -75.9388     0.0000     0.0000     0.0000     0.0000     0.0000     0.0000     0.0000     0.0000     0.0000     0.0000     0.0000     0.0000     0.0000     0.0000     0.0000     0.0000     0.0000     0.6919     4.8000     4.8000    19.2584    19.2114    19.250
      6    -0.0000    -0.0000     1.5000     0.0000      4.234 222107.000  11001.000      5.000    98.4288   142.0306   -75.9387     0.4200    -1.0000    28.2560   -70.4900    25.9232     0.5000     0.0000     0.0000     0.0000     0.0000     0.0000    20.0000     5.0000     5.0000    16.0000    -3.0000    -2.0000   142.0306   -75.9388     0.0000     0.0000     0.0000     0.0000     0.0000     0.0000     0.0000     0.0000     0.0000     0.0000     0.0000     0.0000     0.0000     0.0000     0.0000     0.0000     0.0000     0.6828     4.8000     4.8000    19.2621    19.2125    19.250
      7     0.0000     0.0000     1.4800     0.0000      4.304 191466.000  11001.000      5.000    98.4288   142.0306   -75.9387     0.4200    -1.0000    28.2560   -70.6650    25.5717     0.5000     0.0000     0.0000     0.0000     0.0000     0.0000    20.0000     5.0000     5.0000    16.0000    -3.0000    -2.0000   142.0306   -75.9388     0.0000     0.0000     0.0000     0.0000     0.0000     0.0000     0.0000     0.0000     0.0000     0.0000     0.0000     0.0000     0.0000     0.0000     0.0000     0.0000     0.0000     0.6737     4.8000     4.8000    19.2615    19.2135    19.250
      8     0.0000     0.0000     1.4600     0.0000      4.373 136531.000  11001.000      5.000    98.4288   142.0306   -75.9387     0.4200    -1.0000    28.2560   -70.8400    25.2204     0.5000     0.0000     0.0000     0.0000     0.0000     0.0000    20.0000     5.0000     5.0000    16.0000    -3.0000    -2.0000   142.0306   -75.9388     0.0000     0.0000     0.0000     0.0000     0.0000     0.0000     0.0000     0.0000     0.0000     0.0000     0.0000     0.0000     0.0000     0.0000     0.0000     0.0000     0.0000     0.6646     4.8000     4.8000    19.2617    19.2155    19.250
      9     0.0000     0.0000     1.4400     0.0000      4.337  55835.000  11001.000      5.000    98.4288   142.0306   -75.9387     0.4200    -1.0000    28.2560   -71.0150    24.8694     0.5000     0.0000     0.0000     0.0000     0.0000     0.0000    20.0000     5.0000     5.0000    16.0000    -3.0000    -2.0000   142.0306   -75.9388     0.0000     0.0000     0.0000     0.0000     0.0000     0.0000     0.0000     0.0000     0.0000     0.0000     0.0000     0.0000     0.0000     0.0000     0.0000     0.0000     0.0000     0.6555     4.8000     4.8000    19.2612    19.2142    19.250
     10    -0.0000    -0.0000     1.4200     0.0000      4.335   4046.000  11001.000      5.000    98.4288   142.0306   -75.9387     0.4200    -1.0000    28.2560   -71.1925    24.5185     0.5000     0.0000     0.0000     0.0000     0.0000     0.0000    20.0000     5.0000     5.0000    16.0000    -3.0000    -2.0000   142.0306   -75.9388     0.0000     0.0000     0.0000     0.0000     0.0000     0.0000     0.0000     0.0000     0.0000     0.0000     0.0000     0.0000     0.0000     0.0000     0.0000     0.0000     0.0000     0.6463     4.8000     4.8000    19.2604    19.2136    19.250
     11    -0.0000    -0.0000     1.4000     0.0000      4.307    293.000  11001.000      5.000    98.4288   142.0306   -75.9387     0.4200    -1.0000    28.2560   -71.3675    24.1680     0.5000     0.0000     0.0000     0.0000     0.0000     0.0000    20.0000     5.0000     5.0000    16.0000    -3.0000    -2.0000   142.0306   -75.9388     0.0000     0.0000     0.0000     0.0000     0.0000     0.0000     0.0000     0.0000     0.0000     0.0000     0.0000     0.0000     0.0000     0.0000     0.0000     0.0000     0.0000     0.6372     4.8000     4.8000    19.2587    19.2138    19.250
# Sum of Counts = 948779
# Center of Mass = 1.497765+/-0.002175
# Full Width Half-Maximum = 0.062843+/-0.001448
# 1:11:38 AM  5/2/2024   scan completed.
