# scan = 96
# date = 4/30/2024
# time = 12:26:32 PM
# proposal = 32124
# experiment = Investigation of Spin Waves and Magnetic Interactions in NiTiO3
# experiment_number = 418
# command = scan h 0 k 0 l 1.8 e 1 2 0.1 preset mcu 60
# builtin_command = scan h 0 k 0 l 1.8 e 1 2 0.1 preset mcu 60
# users = Armando Di Biase, John Schneeloch, Despina Louca, Rathnayaka Mudiyanselage Dilan Srimal Rathnayaka
# local_contact = Tao Hong
# scan_title = magnons, constant-Q, (0,0,L)
# monochromator = PG002
# analyzer = Pg002
# sense = -+-
# collimation = 48-40-40-120
# samplename = Single crystal
# sampletype = crystal
# samplemosaic = 30.000000
# latticeconstants = 5.013468,5.013468,13.803923,90.000000,90.000000,120.000000
# ubmatrix = -0.199159,-0.197149,-0.008262,0.022749,0.022749,-0.071970,0.113426,-0.116885,-0.000072
# mode = 0
# plane_normal = -0.008727,-0.000000,0.999962
# ubconf = UB30Apr2024_100100AM.ini
# preset_type = normal 
# preset_channel = mcu
# preset_value = 60.000000
# def_x = e
# def_y = detector
# col_headers = 
#   Pt.          h          k          l          e       time   detector    monitor        mcu focal_length         m1         m2       marc     mtrans     mfocus         s1         s2        sgl        sgu        bbb        bbl        bbr        bbt        bab        bal        bar        bat        stl        stu         a1         a2     afocus        qm1        qm2        qm3        qm4        qm5        qm6        qm7        qm8        xm1        xm2        xm3        xm4        xm5        xm6        xm7        xm8          q         ei         ef        vti     sample       temp
      1     0.0000     0.0000     1.8000     1.0000     53.471      8.000 132001.000     60.000    89.5577   145.9653   -68.0694     0.4200    -1.0000    30.2040   -58.5600    29.2297     0.5000     0.0000     0.0000     0.0000     0.0000     0.0000    20.0000     5.0000     5.0000    16.0000    -3.0000    -2.0000   142.0306   -75.9388     0.0000     0.0000     0.0000     0.0000     0.0000     0.0000     0.0000     0.0000     0.0000     0.0000     0.0000     0.0000     0.0000     0.0000     0.0000     0.0000     0.0000     0.8193     5.8000     4.8000     1.4982     1.4854     1.000
      2     0.0000     0.0000     1.8000     1.1000     53.191     24.000 132001.000     60.000    88.7854   146.2940   -67.4120     0.4200    -1.0000    30.3920   -57.6800    28.9979     0.5000     0.0000     0.0000     0.0000     0.0000     0.0000    20.0000     5.0000     5.0000    16.0000    -3.0000    -2.0000   142.0306   -75.9388     0.0000     0.0000     0.0000     0.0000     0.0000     0.0000     0.0000     0.0000     0.0000     0.0000     0.0000     0.0000     0.0000     0.0000     0.0000     0.0000     0.0000     0.8193     5.9000     4.8000     1.4984     1.4945     1.000
      3     0.0000     0.0000     1.8000     1.2000     52.942     72.000 132001.000     60.000    88.0424   146.6133   -66.7735     0.4200    -1.0000    30.5760   -56.8075    28.7609     0.5000     0.0000     0.0000     0.0000     0.0000     0.0000    20.0000     5.0000     5.0000    16.0000    -3.0000    -2.0000   142.0306   -75.9388     0.0000     0.0000     0.0000     0.0000     0.0000     0.0000     0.0000     0.0000     0.0000     0.0000     0.0000     0.0000     0.0000     0.0000     0.0000     0.0000     0.0000     0.8193     6.0000     4.8000     1.4984     1.4896     1.000
      4    -0.0000    -0.0000     1.8000     1.3000     53.160    131.000 132001.000     60.000    87.3274   146.9235   -66.1530     0.4200    -1.0000    30.7560   -55.9425    28.5188     0.5000     0.0000     0.0000     0.0000     0.0000     0.0000    20.0000     5.0000     5.0000    16.0000    -3.0000    -2.0000   142.0306   -75.9388     0.0000     0.0000     0.0000     0.0000     0.0000     0.0000     0.0000     0.0000     0.0000     0.0000     0.0000     0.0000     0.0000     0.0000     0.0000     0.0000     0.0000     0.8193     6.1000     4.8000     1.4983     1.4834     1.000
      5    -0.0000    -0.0000     1.8000     1.4000     54.429    215.000 132001.000     60.000    86.6085   147.2252   -65.5497     0.4200    -1.0000    30.9400   -55.0800    28.2718     0.5000     0.0000     0.0000     0.0000     0.0000     0.0000    20.0000     5.0000     5.0000    16.0000    -3.0000    -2.0000   142.0306   -75.9388     0.0000     0.0000     0.0000     0.0000     0.0000     0.0000     0.0000     0.0000     0.0000     0.0000     0.0000     0.0000     0.0000     0.0000     0.0000     0.0000     0.0000     0.8193     6.2000     4.8000     1.4982     1.4955     1.000
      6    -0.0000    -0.0000     1.8000     1.5000     55.510    238.000 132001.000     60.000    85.9166   147.5186   -64.9628     0.4200    -1.0000    31.1200   -54.2225    28.0198     0.5000     0.0000     0.0000     0.0000     0.0000     0.0000    20.0000     5.0000     5.0000    16.0000    -3.0000    -2.0000   142.0306   -75.9388     0.0000     0.0000     0.0000     0.0000     0.0000     0.0000     0.0000     0.0000     0.0000     0.0000     0.0000     0.0000     0.0000     0.0000     0.0000     0.0000     0.0000     0.8193     6.3000     4.8000     1.4984     1.4872     1.000
      7     0.0000     0.0000     1.8000     1.6000     56.265    170.000 132001.000     60.000    85.2506   147.8042   -64.3915     0.4200    -1.0000    31.2960   -53.3700    27.7629     0.5000     0.0000     0.0000     0.0000     0.0000     0.0000    20.0000     5.0000     5.0000    16.0000    -3.0000    -2.0000   142.0306   -75.9388     0.0000     0.0000     0.0000     0.0000     0.0000     0.0000     0.0000     0.0000     0.0000     0.0000     0.0000     0.0000     0.0000     0.0000     0.0000     0.0000     0.0000     0.8193     6.4000     4.8000     1.4983     1.4925     1.000
      8    -0.0000    -0.0000     1.8000     1.7000     56.637     84.000 132001.000     60.000    84.5949   148.0824   -63.8352     0.4200    -1.0000    31.4720   -52.5225    27.5012     0.5000     0.0000     0.0000     0.0000     0.0000     0.0000    20.0000     5.0000     5.0000    16.0000    -3.0000    -2.0000   142.0306   -75.9388     0.0000     0.0000     0.0000     0.0000     0.0000     0.0000     0.0000     0.0000     0.0000     0.0000     0.0000     0.0000     0.0000     0.0000     0.0000     0.0000     0.0000     0.8193     6.5000     4.8000     1.4983     1.4896     1.000
      9    -0.0000    -0.0000     1.8000     1.8000     57.155     71.000 132001.000     60.000    83.9492   148.3534   -63.2932     0.4200    -1.0000    31.6480   -51.6775    27.2347     0.5000     0.0000     0.0000     0.0000     0.0000     0.0000    20.0000     5.0000     5.0000    16.0000    -3.0000    -2.0000   142.0306   -75.9388     0.0000     0.0000     0.0000     0.0000     0.0000     0.0000     0.0000     0.0000     0.0000     0.0000     0.0000     0.0000     0.0000     0.0000     0.0000     0.0000     0.0000     0.8193     6.6000     4.8000     1.4983     1.4832     1.000
     10    -0.0000    -0.0000     1.8000     1.9000     57.537     29.000 132001.000     60.000    83.3132   148.6175   -62.7649     0.4200    -1.0000    31.8240   -50.8350    26.9635     0.5000     0.0000     0.0000     0.0000     0.0000     0.0000    20.0000     5.0000     5.0000    16.0000    -3.0000    -2.0000   142.0306   -75.9388     0.0000     0.0000     0.0000     0.0000     0.0000     0.0000     0.0000     0.0000     0.0000     0.0000     0.0000     0.0000     0.0000     0.0000     0.0000     0.0000     0.0000     0.8193     6.7000     4.8000     1.4983     1.4885     1.000
     11     0.0000     0.0000     1.8000     2.0000     57.633      8.000 132001.000     60.000    82.7010   148.8751   -62.2498     0.4200    -1.0000    31.9960   -49.9950    26.6875     0.5000     0.0000     0.0000     0.0000     0.0000     0.0000    20.0000     5.0000     5.0000    16.0000    -3.0000    -2.0000   142.0306   -75.9388     0.0000     0.0000     0.0000     0.0000     0.0000     0.0000     0.0000     0.0000     0.0000     0.0000     0.0000     0.0000     0.0000     0.0000     0.0000     0.0000     0.0000     0.8193     6.8000     4.8000     1.4983     1.4830     1.000
# Sum of Counts = 1050
# Center of Mass = 1.488381+/-0.065221
# Full Width Half-Maximum = 0.378761+/-0.036792
# 12:39:03 PM  4/30/2024   scan completed.
